! Boundary layer characteristics at the trailing edge for the airfoil coordinates of C:/Material/Projects/Aeroacoustics/openfast-noise-test/5MW_Baseline/AirfoilsModified/AF11Coords.txt
! Legend: aoa - angle of attack (deg), Re - Reynolds number (-, millions), PS - pressure side, SS - suction side,  Ue_Vinf - edge velocity (-), Dstar - displacement thickness (-), Theta - momentum thickness (-) Cf  - friction coefficient (-)
4 	 ReListBL   -  Number of Reynolds numbers (it corresponds to the number of tables)
20 	 aoaListBL  -  Number of angles of attack (it corresponds to the number of rows in each table)
0.50 	   -  Re
aoa 	 	 Ue_Vinf_SS 	 Ue_Vinf_PS 	  Dstar_SS 	 	  Dstar_PS 	 	  Theta_SS 	 	  Theta_PS 	 	    Cf_SS 	 	    Cf_PS
(deg) 	 	 	 (-) 	 	 	 (-) 	 	 	 (-) 	 	 	 (-) 	 	 	 (-) 	 	 	 (-) 	 	 	 (-) 	 	 	 (-)
-5.00000 	 9.18340e-01 	 8.91270e-01 	 4.42300e-03 	 5.17200e-03 	 2.87100e-03 	 3.21600e-03 	 2.61400e-03 	 2.13900e-03 
-3.68421 	 9.21360e-01 	 8.95350e-01 	 4.96400e-03 	 5.77800e-03 	 3.17200e-03 	 3.53500e-03 	 2.44500e-03 	 2.00300e-03 
-2.36842 	 9.23910e-01 	 8.98880e-01 	 5.57100e-03 	 6.45700e-03 	 3.51000e-03 	 3.89400e-03 	 2.29400e-03 	 1.88200e-03 
-1.05263 	 9.25630e-01 	 9.01570e-01 	 6.27100e-03 	 7.24100e-03 	 3.89100e-03 	 4.29900e-03 	 2.14100e-03 	 1.75500e-03 
0.26316 	 9.26720e-01 	 9.03630e-01 	 7.06900e-03 	 8.13300e-03 	 4.32300e-03 	 4.75800e-03 	 1.99700e-03 	 1.63800e-03 
1.57895 	 9.27770e-01 	 9.05800e-01 	 7.93400e-03 	 9.09800e-03 	 4.74700e-03 	 5.20200e-03 	 1.83000e-03 	 1.49700e-03 
2.89474 	 9.28410e-01 	 9.07680e-01 	 8.92800e-03 	 1.02020e-02 	 5.21000e-03 	 5.68300e-03 	 1.65800e-03 	 1.35200e-03 
4.21053 	 9.28490e-01 	 9.09090e-01 	 1.01560e-02 	 1.15580e-02 	 5.78000e-03 	 6.27400e-03 	 1.49300e-03 	 1.21400e-03 
5.52632 	 9.29050e-01 	 9.11120e-01 	 1.15510e-02 	 1.30860e-02 	 6.38600e-03 	 6.89300e-03 	 1.32800e-03 	 1.07600e-03 
6.84211 	 9.29690e-01 	 9.15040e-01 	 1.34420e-02 	 1.51700e-02 	 6.68100e-03 	 7.13300e-03 	 9.23000e-04 	 7.21000e-04 
8.15789 	 9.32560e-01 	 9.21590e-01 	 1.62460e-02 	 1.81930e-02 	 7.18900e-03 	 7.57100e-03 	 5.86000e-04 	 4.36000e-04 
9.47368 	 9.41950e-01 	 9.36590e-01 	 2.17100e-02 	 2.39590e-02 	 7.81700e-03 	 8.03800e-03 	 2.11000e-04 	 1.23000e-04 
10.78947 	 1.00035e+00 	 9.97810e-01 	 4.44740e-02 	 4.72080e-02 	 8.25900e-03 	 8.41900e-03 	 -1.70000e-05 	 -1.70000e-05 
12.10526 	 1.04957e+00 	 1.04699e+00 	 7.97430e-02 	 8.29030e-02 	 9.79400e-03 	 1.00430e-02 	 -1.30000e-05 	 -1.30000e-05 
13.42105 	 1.08143e+00 	 1.07916e+00 	 1.15157e-01 	 1.18759e-01 	 1.14020e-02 	 1.16950e-02 	 -1.10000e-05 	 -1.10000e-05 
14.73684 	 1.10320e+00 	 1.10119e+00 	 1.47543e-01 	 1.51544e-01 	 1.27370e-02 	 1.30570e-02 	 -1.00000e-05 	 -1.00000e-05 
16.05263 	 1.12038e+00 	 1.11857e+00 	 1.79019e-01 	 1.83392e-01 	 1.39200e-02 	 1.42570e-02 	 -9.00000e-06 	 -9.00000e-06 
17.36842 	 1.13584e+00 	 1.13421e+00 	 2.11059e-01 	 2.15782e-01 	 1.50200e-02 	 1.53690e-02 	 -9.00000e-06 	 -9.00000e-06 
18.68421 	 1.15012e+00 	 1.14863e+00 	 2.41620e-01 	 2.46655e-01 	 1.59760e-02 	 1.63330e-02 	 -8.00000e-06 	 -8.00000e-06 
20.00000 	 1.16375e+00 	 1.16238e+00 	 2.69958e-01 	 2.75259e-01 	 1.68140e-02 	 1.71770e-02 	 -8.00000e-06 	 -8.00000e-06 
1.00 	   -  Re
aoa 	 	 Ue_Vinf_SS 	 Ue_Vinf_PS 	  Dstar_SS 	 	  Dstar_PS 	 	  Theta_SS 	 	  Theta_PS 	 	    Cf_SS 	 	    Cf_PS
(deg) 	 	 	 (-) 	 	 	 (-) 	 	 	 (-) 	 	 	 (-) 	 	 	 (-) 	 	 	 (-) 	 	 	 (-) 	 	 	 (-)
-5.00000 	 9.22090e-01 	 8.93850e-01 	 3.53000e-03 	 4.16000e-03 	 2.26300e-03 	 2.54700e-03 	 2.22100e-03 	 1.79600e-03 
-3.68421 	 9.25350e-01 	 8.98080e-01 	 3.96300e-03 	 4.65100e-03 	 2.50600e-03 	 2.80800e-03 	 2.09100e-03 	 1.69200e-03 
-2.36842 	 9.27850e-01 	 9.01400e-01 	 4.41600e-03 	 5.16700e-03 	 2.75100e-03 	 3.07100e-03 	 1.96300e-03 	 1.58600e-03 
-1.05263 	 9.29630e-01 	 9.03940e-01 	 4.89900e-03 	 5.72000e-03 	 3.00200e-03 	 3.34100e-03 	 1.83600e-03 	 1.47900e-03 
0.26316 	 9.30760e-01 	 9.05930e-01 	 5.45800e-03 	 6.36000e-03 	 3.28300e-03 	 3.64200e-03 	 1.70200e-03 	 1.36500e-03 
1.57895 	 9.31310e-01 	 9.07560e-01 	 6.15000e-03 	 7.14900e-03 	 3.61700e-03 	 3.99600e-03 	 1.55300e-03 	 1.23900e-03 
2.89474 	 9.31350e-01 	 9.08960e-01 	 7.01400e-03 	 8.12900e-03 	 4.01700e-03 	 4.41600e-03 	 1.39400e-03 	 1.10400e-03 
4.21053 	 9.31130e-01 	 9.10070e-01 	 7.85600e-03 	 9.08300e-03 	 4.36100e-03 	 4.77100e-03 	 1.23700e-03 	 9.70000e-04 
5.52632 	 9.30550e-01 	 9.11260e-01 	 8.95100e-03 	 1.03150e-02 	 4.77000e-03 	 5.18700e-03 	 1.05700e-03 	 8.18000e-04 
6.84211 	 9.30420e-01 	 9.13680e-01 	 1.04890e-02 	 1.20230e-02 	 5.25400e-03 	 5.66100e-03 	 8.33000e-04 	 6.31000e-04 
8.15789 	 9.31870e-01 	 9.18920e-01 	 1.31590e-02 	 1.49260e-02 	 6.00500e-03 	 6.37900e-03 	 5.69000e-04 	 4.16000e-04 
9.47368 	 9.51220e-01 	 9.50860e-01 	 2.41580e-02 	 2.64590e-02 	 7.77700e-03 	 7.79300e-03 	 5.50000e-05 	 1.00000e-05 
10.78947 	 1.00880e+00 	 1.00619e+00 	 4.63540e-02 	 4.90680e-02 	 8.13700e-03 	 8.30300e-03 	 -9.00000e-06 	 -8.00000e-06 
12.10526 	 1.04556e+00 	 1.04288e+00 	 7.26780e-02 	 7.57280e-02 	 9.24700e-03 	 9.48500e-03 	 -7.00000e-06 	 -7.00000e-06 
13.42105 	 1.07117e+00 	 1.06873e+00 	 9.95490e-02 	 1.02963e-01 	 1.04750e-02 	 1.07540e-02 	 -6.00000e-06 	 -6.00000e-06 
14.73684 	 1.09190e+00 	 1.08970e+00 	 1.27399e-01 	 1.31180e-01 	 1.17000e-02 	 1.20100e-02 	 -6.00000e-06 	 -5.00000e-06 
16.05263 	 1.10853e+00 	 1.10654e+00 	 1.55557e-01 	 1.59698e-01 	 1.28520e-02 	 1.31820e-02 	 -5.00000e-06 	 -5.00000e-06 
17.36842 	 1.12335e+00 	 1.12155e+00 	 1.85168e-01 	 1.89664e-01 	 1.39860e-02 	 1.43310e-02 	 -5.00000e-06 	 -5.00000e-06 
18.68421 	 1.13742e+00 	 1.13579e+00 	 2.16245e-01 	 2.21082e-01 	 1.51150e-02 	 1.54710e-02 	 -4.00000e-06 	 -4.00000e-06 
20.00000 	 1.15092e+00 	 1.14943e+00 	 2.46546e-01 	 2.51691e-01 	 1.61730e-02 	 1.65380e-02 	 -4.00000e-06 	 -4.00000e-06 
5.00 	   -  Re
aoa 	 	 Ue_Vinf_SS 	 Ue_Vinf_PS 	  Dstar_SS 	 	  Dstar_PS 	 	  Theta_SS 	 	  Theta_PS 	 	    Cf_SS 	 	    Cf_PS
(deg) 	 	 	 (-) 	 	 	 (-) 	 	 	 (-) 	 	 	 (-) 	 	 	 (-) 	 	 	 (-) 	 	 	 (-) 	 	 	 (-)
-5.00000 	 9.29730e-01 	 8.98860e-01 	 2.31100e-03 	 2.72600e-03 	 1.56600e-03 	 1.77700e-03 	 1.86900e-03 	 1.54000e-03 
-3.68421 	 9.32660e-01 	 9.02010e-01 	 2.53400e-03 	 2.98800e-03 	 1.70300e-03 	 1.92900e-03 	 1.80000e-03 	 1.48000e-03 
-2.36842 	 9.34830e-01 	 9.04280e-01 	 2.77000e-03 	 3.26700e-03 	 1.84300e-03 	 2.08600e-03 	 1.72800e-03 	 1.41400e-03 
-1.05263 	 9.36340e-01 	 9.05930e-01 	 3.03600e-03 	 3.58400e-03 	 1.99700e-03 	 2.25800e-03 	 1.64900e-03 	 1.34200e-03 
0.26316 	 9.36990e-01 	 9.06860e-01 	 3.36800e-03 	 3.97900e-03 	 2.18600e-03 	 2.46800e-03 	 1.55700e-03 	 1.25900e-03 
1.57895 	 9.36880e-01 	 9.07220e-01 	 3.76800e-03 	 4.45500e-03 	 2.40500e-03 	 2.71200e-03 	 1.45400e-03 	 1.16600e-03 
2.89474 	 9.36340e-01 	 9.07210e-01 	 4.17100e-03 	 4.93600e-03 	 2.61600e-03 	 2.94400e-03 	 1.35500e-03 	 1.07700e-03 
4.21053 	 9.34960e-01 	 9.06990e-01 	 4.79300e-03 	 5.66600e-03 	 2.93300e-03 	 3.28900e-03 	 1.22500e-03 	 9.65000e-04 
5.52632 	 9.33020e-01 	 9.07610e-01 	 5.96300e-03 	 7.00700e-03 	 3.50300e-03 	 3.89200e-03 	 1.03700e-03 	 8.09000e-04 
6.84211 	 9.32530e-01 	 9.14280e-01 	 9.68100e-03 	 1.11190e-02 	 5.07200e-03 	 5.49000e-03 	 6.55000e-04 	 5.02000e-04 
8.15789 	 9.37330e-01 	 9.26490e-01 	 1.51470e-02 	 1.70080e-02 	 6.68000e-03 	 7.02800e-03 	 3.17000e-04 	 2.27000e-04 
9.47368 	 9.47710e-01 	 9.43880e-01 	 2.15660e-02 	 2.37980e-02 	 7.62200e-03 	 7.77700e-03 	 8.30000e-05 	 2.50000e-05 
10.78947 	 9.80720e-01 	 9.78840e-01 	 3.16340e-02 	 3.41580e-02 	 7.40600e-03 	 7.49800e-03 	 -1.00000e-06 	 -2.00000e-06 
12.10526 	 1.00830e+00 	 1.00573e+00 	 4.47740e-02 	 4.75160e-02 	 7.56600e-03 	 7.72300e-03 	 -2.00000e-06 	 -2.00000e-06 
13.42105 	 1.03337e+00 	 1.03063e+00 	 6.20180e-02 	 6.50070e-02 	 8.16700e-03 	 8.38000e-03 	 -2.00000e-06 	 -2.00000e-06 
14.73684 	 1.05635e+00 	 1.05372e+00 	 8.37200e-02 	 8.70200e-02 	 9.14700e-03 	 9.40700e-03 	 -1.00000e-06 	 -1.00000e-06 
16.05263 	 1.07621e+00 	 1.07377e+00 	 1.08003e-01 	 1.11646e-01 	 1.02870e-02 	 1.05830e-02 	 -1.00000e-06 	 -1.00000e-06 
17.36842 	 1.09351e+00 	 1.09131e+00 	 1.34579e-01 	 1.38582e-01 	 1.14930e-02 	 1.18160e-02 	 -1.00000e-06 	 -1.00000e-06 
18.68421 	 1.10786e+00 	 1.10587e+00 	 1.61829e-01 	 1.66186e-01 	 1.26520e-02 	 1.29930e-02 	 -1.00000e-06 	 -1.00000e-06 
20.00000 	 1.12153e+00 	 1.11974e+00 	 1.91818e-01 	 1.96537e-01 	 1.38390e-02 	 1.41940e-02 	 -1.00000e-06 	 -1.00000e-06 
10.00 	   -  Re
aoa 	 	 Ue_Vinf_SS 	 Ue_Vinf_PS 	  Dstar_SS 	 	  Dstar_PS 	 	  Theta_SS 	 	  Theta_PS 	 	    Cf_SS 	 	    Cf_PS
(deg) 	 	 	 (-) 	 	 	 (-) 	 	 	 (-) 	 	 	 (-) 	 	 	 (-) 	 	 	 (-) 	 	 	 (-) 	 	 	 (-)
-5.00000 	 9.31090e-01 	 8.99150e-01 	 2.00900e-03 	 2.37300e-03 	 1.39400e-03 	 1.58700e-03 	 1.73500e-03 	 1.43700e-03 
-3.68421 	 9.34600e-01 	 9.03090e-01 	 2.21100e-03 	 2.60600e-03 	 1.52300e-03 	 1.72900e-03 	 1.67800e-03 	 1.39000e-03 
-2.36842 	 9.36700e-01 	 9.05110e-01 	 2.41400e-03 	 2.84800e-03 	 1.64800e-03 	 1.87000e-03 	 1.61700e-03 	 1.33300e-03 
-1.05263 	 9.38090e-01 	 9.06340e-01 	 2.61900e-03 	 3.09700e-03 	 1.77100e-03 	 2.01000e-03 	 1.55500e-03 	 1.27400e-03 
0.26316 	 9.38710e-01 	 9.07040e-01 	 2.90200e-03 	 3.43700e-03 	 1.93800e-03 	 2.19900e-03 	 1.47600e-03 	 1.20100e-03 
1.57895 	 9.38630e-01 	 9.07250e-01 	 3.24600e-03 	 3.84900e-03 	 2.13600e-03 	 2.42000e-03 	 1.38800e-03 	 1.12000e-03 
2.89474 	 9.37890e-01 	 9.07030e-01 	 3.65300e-03 	 4.33600e-03 	 2.36200e-03 	 2.67200e-03 	 1.29200e-03 	 1.03400e-03 
4.21053 	 9.36030e-01 	 9.07240e-01 	 4.56600e-03 	 5.39600e-03 	 2.85700e-03 	 3.20900e-03 	 1.12500e-03 	 8.93000e-04 
5.52632 	 9.33590e-01 	 9.09770e-01 	 6.74700e-03 	 7.86100e-03 	 3.93200e-03 	 4.34000e-03 	 8.45000e-04 	 6.63000e-04 
6.84211 	 9.33560e-01 	 9.16180e-01 	 1.03390e-02 	 1.18210e-02 	 5.37000e-03 	 5.79100e-03 	 5.38000e-04 	 4.12000e-04 
8.15789 	 9.35590e-01 	 9.23190e-01 	 1.38850e-02 	 1.56690e-02 	 6.40100e-03 	 6.77600e-03 	 3.28000e-04 	 2.39000e-04 
9.47368 	 9.40320e-01 	 9.32700e-01 	 1.79120e-02 	 1.99740e-02 	 7.16900e-03 	 7.44200e-03 	 1.64000e-04 	 1.02000e-04 
10.78947 	 9.58190e-01 	 9.58870e-01 	 2.48960e-02 	 2.72710e-02 	 7.37700e-03 	 7.34800e-03 	 1.00000e-06 	 0.00000e+00 
12.10526 	 9.88740e-01 	 9.86570e-01 	 3.52590e-02 	 3.78990e-02 	 7.19700e-03 	 7.30900e-03 	 -1.00000e-06 	 -1.00000e-06 
13.42105 	 1.01519e+00 	 1.01255e+00 	 4.96900e-02 	 5.25520e-02 	 7.48000e-03 	 7.65200e-03 	 -1.00000e-06 	 -1.00000e-06 
14.73684 	 1.03867e+00 	 1.03595e+00 	 6.78680e-02 	 7.09970e-02 	 8.18100e-03 	 8.40600e-03 	 -1.00000e-06 	 -1.00000e-06 
16.05263 	 1.06067e+00 	 1.05808e+00 	 9.05480e-02 	 9.40010e-02 	 9.22800e-03 	 9.49900e-03 	 -1.00000e-06 	 -1.00000e-06 
17.36842 	 1.07910e+00 	 1.07672e+00 	 1.15087e-01 	 1.18887e-01 	 1.03840e-02 	 1.06900e-02 	 -1.00000e-06 	 -1.00000e-06 
18.68421 	 1.09544e+00 	 1.09328e+00 	 1.42284e-01 	 1.46448e-01 	 1.16520e-02 	 1.19840e-02 	 -1.00000e-06 	 -1.00000e-06 
20.00000 	 1.11009e+00 	 1.10815e+00 	 1.71698e-01 	 1.76233e-01 	 1.29090e-02 	 1.32580e-02 	 -1.00000e-06 	 0.00000e+00 
