! Boundary layer characteristics at the trailing edge for the airfoil coordinates of C:/Material/Projects/Aeroacoustics/openfast-noise-test/5MW_Baseline/AirfoilsModified/AF6Coords.txt
! Legend: aoa - angle of attack (deg), Re - Reynolds number (-, millions), PS - pressure side, SS - suction side,  Ue_Vinf - edge velocity (-), Dstar - displacement thickness (-), Theta - momentum thickness (-) Cf  - friction coefficient (-)
4 	 ReListBL   -  Number of Reynolds numbers (it corresponds to the number of tables)
20 	 aoaListBL  -  Number of angles of attack (it corresponds to the number of rows in each table)
0.50 	   -  Re
aoa 	 	 Ue_Vinf_SS 	 Ue_Vinf_PS 	  Dstar_SS 	 	  Dstar_PS 	 	  Theta_SS 	 	  Theta_PS 	 	    Cf_SS 	 	    Cf_PS
(deg) 	 	 	 (-) 	 	 	 (-) 	 	 	 (-) 	 	 	 (-) 	 	 	 (-) 	 	 	 (-) 	 	 	 (-) 	 	 	 (-)
-5.00000 	 1.03773e+00 	 1.03420e+00 	 4.39500e-03 	 4.47500e-03 	 2.89800e-03 	 2.95400e-03 	 3.33800e-03 	 3.30900e-03 
-3.68421 	 1.03129e+00 	 1.02600e+00 	 5.07600e-03 	 5.20500e-03 	 3.28000e-03 	 3.36000e-03 	 3.02000e-03 	 2.96400e-03 
-2.36842 	 9.95510e-01 	 9.87780e-01 	 6.06200e-03 	 6.29700e-03 	 3.78700e-03 	 3.91200e-03 	 2.48700e-03 	 2.39500e-03 
-1.05263 	 9.84570e-01 	 9.75570e-01 	 7.17500e-03 	 7.51200e-03 	 4.33800e-03 	 4.50100e-03 	 2.14200e-03 	 2.03300e-03 
0.26316 	 9.43600e-01 	 9.32990e-01 	 9.03700e-03 	 9.59900e-03 	 5.14200e-03 	 5.37600e-03 	 1.38500e-03 	 1.24500e-03 
1.57895 	 8.63460e-01 	 8.53720e-01 	 1.58930e-02 	 1.76290e-02 	 7.06500e-03 	 7.42400e-03 	 5.27000e-04 	 4.06000e-04 
2.89474 	 8.69680e-01 	 8.61680e-01 	 1.84640e-02 	 2.03490e-02 	 7.72700e-03 	 8.05500e-03 	 4.03000e-04 	 3.03000e-04 
4.21053 	 8.77500e-01 	 8.71180e-01 	 2.16920e-02 	 2.37340e-02 	 8.55400e-03 	 8.84600e-03 	 3.00000e-04 	 2.18000e-04 
5.52632 	 8.87430e-01 	 8.83190e-01 	 2.53510e-02 	 2.75540e-02 	 9.06700e-03 	 9.28300e-03 	 1.74000e-04 	 1.09000e-04 
6.84211 	 8.97770e-01 	 8.96160e-01 	 2.98990e-02 	 3.22530e-02 	 9.81300e-03 	 9.90500e-03 	 8.40000e-05 	 2.60000e-05 
8.15789 	 9.18920e-01 	 9.17760e-01 	 3.67170e-02 	 3.93130e-02 	 9.61800e-03 	 9.69100e-03 	 0.00000e+00 	 -5.00000e-06 
9.47368 	 9.36330e-01 	 9.34840e-01 	 4.36240e-02 	 4.63620e-02 	 9.93700e-03 	 1.00400e-02 	 -1.00000e-05 	 -1.10000e-05 
10.78947 	 9.58890e-01 	 9.57100e-01 	 5.43090e-02 	 5.72210e-02 	 9.73900e-03 	 9.88000e-03 	 -1.40000e-05 	 -1.30000e-05 
12.10526 	 9.78980e-01 	 9.77120e-01 	 6.70510e-02 	 7.01640e-02 	 9.93300e-03 	 1.01020e-02 	 -1.30000e-05 	 -1.30000e-05 
13.42105 	 9.99350e-01 	 9.97450e-01 	 8.23490e-02 	 8.56780e-02 	 1.01600e-02 	 1.03590e-02 	 -1.20000e-05 	 -1.20000e-05 
14.73684 	 1.02256e+00 	 1.02060e+00 	 1.03568e-01 	 1.07157e-01 	 1.05390e-02 	 1.07820e-02 	 -1.20000e-05 	 -1.10000e-05 
16.05263 	 1.04529e+00 	 1.04332e+00 	 1.28758e-01 	 1.32632e-01 	 1.13650e-02 	 1.16550e-02 	 -1.10000e-05 	 -1.10000e-05 
17.36842 	 1.06854e+00 	 1.06667e+00 	 1.61894e-01 	 1.66129e-01 	 1.27800e-02 	 1.31120e-02 	 -1.00000e-05 	 -1.00000e-05 
18.68421 	 1.09164e+00 	 1.08995e+00 	 2.01809e-01 	 2.06452e-01 	 1.45400e-02 	 1.49030e-02 	 -9.00000e-06 	 -8.00000e-06 
20.00000 	 1.11267e+00 	 1.11116e+00 	 2.43228e-01 	 2.48268e-01 	 1.61900e-02 	 1.65690e-02 	 -8.00000e-06 	 -8.00000e-06 
1.00 	   -  Re
aoa 	 	 Ue_Vinf_SS 	 Ue_Vinf_PS 	  Dstar_SS 	 	  Dstar_PS 	 	  Theta_SS 	 	  Theta_PS 	 	    Cf_SS 	 	    Cf_PS
(deg) 	 	 	 (-) 	 	 	 (-) 	 	 	 (-) 	 	 	 (-) 	 	 	 (-) 	 	 	 (-) 	 	 	 (-) 	 	 	 (-)
-5.00000 	 8.57860e-01 	 8.38750e-01 	 5.12700e-03 	 5.80400e-03 	 3.07600e-03 	 3.35700e-03 	 1.49600e-03 	 1.26100e-03 
-3.68421 	 8.46570e-01 	 8.27240e-01 	 6.42300e-03 	 7.37700e-03 	 3.64800e-03 	 3.99400e-03 	 1.18500e-03 	 9.56000e-04 
-2.36842 	 8.44900e-01 	 8.27230e-01 	 7.82600e-03 	 8.97300e-03 	 4.22800e-03 	 4.60000e-03 	 9.69000e-04 	 7.67000e-04 
-1.05263 	 8.49680e-01 	 8.33800e-01 	 9.11700e-03 	 1.03830e-02 	 4.72800e-03 	 5.10500e-03 	 8.28000e-04 	 6.51000e-04 
0.26316 	 8.55140e-01 	 8.41110e-01 	 1.05830e-02 	 1.19670e-02 	 5.24500e-03 	 5.61700e-03 	 6.95000e-04 	 5.42000e-04 
1.57895 	 8.61340e-01 	 8.49260e-01 	 1.23320e-02 	 1.38420e-02 	 5.79200e-03 	 6.15000e-03 	 5.61000e-04 	 4.33000e-04 
2.89474 	 8.68470e-01 	 8.58360e-01 	 1.43280e-02 	 1.59690e-02 	 6.33000e-03 	 6.66200e-03 	 4.36000e-04 	 3.29000e-04 
4.21053 	 8.75280e-01 	 8.67110e-01 	 1.65220e-02 	 1.83070e-02 	 6.81000e-03 	 7.10600e-03 	 3.20000e-04 	 2.31000e-04 
5.52632 	 8.84320e-01 	 8.78760e-01 	 1.97630e-02 	 2.17330e-02 	 7.33900e-03 	 7.56500e-03 	 1.85000e-04 	 1.16000e-04 
6.84211 	 8.95170e-01 	 8.94610e-01 	 2.39050e-02 	 2.60680e-02 	 7.66500e-03 	 7.69100e-03 	 4.80000e-05 	 1.00000e-05 
8.15789 	 9.16920e-01 	 9.15160e-01 	 2.96890e-02 	 3.20730e-02 	 7.57600e-03 	 7.66400e-03 	 -1.00000e-06 	 -5.00000e-06 
9.47368 	 9.36080e-01 	 9.33840e-01 	 3.62870e-02 	 3.88010e-02 	 7.65100e-03 	 7.77800e-03 	 -8.00000e-06 	 -8.00000e-06 
10.78947 	 9.56310e-01 	 9.53840e-01 	 4.56520e-02 	 4.83250e-02 	 7.82000e-03 	 7.98200e-03 	 -8.00000e-06 	 -8.00000e-06 
12.10526 	 9.73500e-01 	 9.70920e-01 	 5.55890e-02 	 5.84250e-02 	 8.07700e-03 	 8.27100e-03 	 -8.00000e-06 	 -8.00000e-06 
13.42105 	 9.93290e-01 	 9.90700e-01 	 6.96140e-02 	 7.26560e-02 	 8.57100e-03 	 8.80200e-03 	 -7.00000e-06 	 -7.00000e-06 
14.73684 	 1.01344e+00 	 1.01093e+00 	 8.76150e-02 	 9.09130e-02 	 9.32400e-03 	 9.59300e-03 	 -7.00000e-06 	 -6.00000e-06 
16.05263 	 1.03548e+00 	 1.03310e+00 	 1.11280e-01 	 1.14884e-01 	 1.04750e-02 	 1.07840e-02 	 -6.00000e-06 	 -6.00000e-06 
17.36842 	 1.06144e+00 	 1.05932e+00 	 1.46671e-01 	 1.50697e-01 	 1.23090e-02 	 1.26560e-02 	 -5.00000e-06 	 -5.00000e-06 
18.68421 	 1.08469e+00 	 1.08284e+00 	 1.85942e-01 	 1.90408e-01 	 1.42280e-02 	 1.45980e-02 	 -4.00000e-06 	 -4.00000e-06 
20.00000 	 1.10940e+00 	 1.10782e+00 	 2.34130e-01 	 2.39073e-01 	 1.63310e-02 	 1.67160e-02 	 -4.00000e-06 	 -4.00000e-06 
5.00 	   -  Re
aoa 	 	 Ue_Vinf_SS 	 Ue_Vinf_PS 	  Dstar_SS 	 	  Dstar_PS 	 	  Theta_SS 	 	  Theta_PS 	 	    Cf_SS 	 	    Cf_PS
(deg) 	 	 	 (-) 	 	 	 (-) 	 	 	 (-) 	 	 	 (-) 	 	 	 (-) 	 	 	 (-) 	 	 	 (-) 	 	 	 (-)
-5.00000 	 8.44880e-01 	 8.21250e-01 	 3.97200e-03 	 4.60900e-03 	 2.49500e-03 	 2.77700e-03 	 1.14900e-03 	 9.44000e-04 
-3.68421 	 8.51380e-01 	 8.29300e-01 	 4.52400e-03 	 5.20400e-03 	 2.79400e-03 	 3.08500e-03 	 1.08000e-03 	 8.93000e-04 
-2.36842 	 8.56430e-01 	 8.35440e-01 	 5.07100e-03 	 5.80400e-03 	 3.07200e-03 	 3.37600e-03 	 1.00900e-03 	 8.35000e-04 
-1.05263 	 8.60670e-01 	 8.40620e-01 	 5.67000e-03 	 6.47000e-03 	 3.36200e-03 	 3.67800e-03 	 9.34000e-04 	 7.71000e-04 
0.26316 	 8.65210e-01 	 8.46250e-01 	 6.37100e-03 	 7.24200e-03 	 3.68400e-03 	 4.01300e-03 	 8.55000e-04 	 7.04000e-04 
1.57895 	 8.69440e-01 	 8.51310e-01 	 6.96200e-03 	 7.89600e-03 	 3.93400e-03 	 4.27000e-03 	 7.90000e-04 	 6.47000e-04 
2.89474 	 8.72580e-01 	 8.55590e-01 	 7.90200e-03 	 8.94200e-03 	 4.31500e-03 	 4.66300e-03 	 6.96000e-04 	 5.65000e-04 
4.21053 	 8.74980e-01 	 8.58930e-01 	 8.72800e-03 	 9.86900e-03 	 4.61000e-03 	 4.96400e-03 	 6.16000e-04 	 4.93000e-04 
5.52632 	 8.78240e-01 	 8.63760e-01 	 1.00380e-02 	 1.13170e-02 	 5.05700e-03 	 5.41300e-03 	 5.13000e-04 	 4.04000e-04 
6.84211 	 8.80110e-01 	 8.67000e-01 	 1.12380e-02 	 1.26540e-02 	 5.39800e-03 	 5.74800e-03 	 4.24000e-04 	 3.26000e-04 
8.15789 	 8.83350e-01 	 8.72520e-01 	 1.32540e-02 	 1.48630e-02 	 5.91200e-03 	 6.23800e-03 	 3.10000e-04 	 2.27000e-04 
9.47368 	 8.86970e-01 	 8.78760e-01 	 1.56100e-02 	 1.74260e-02 	 6.36200e-03 	 6.63700e-03 	 2.01000e-04 	 1.34000e-04 
10.78947 	 8.93470e-01 	 8.91950e-01 	 1.99280e-02 	 2.20670e-02 	 6.82900e-03 	 6.88800e-03 	 5.70000e-05 	 4.00000e-06 
12.10526 	 9.21910e-01 	 9.20050e-01 	 2.74040e-02 	 2.98160e-02 	 6.70800e-03 	 6.79300e-03 	 -1.00000e-06 	 -1.00000e-06 
13.42105 	 9.48730e-01 	 9.46160e-01 	 3.85700e-02 	 4.12040e-02 	 6.87300e-03 	 7.01900e-03 	 -2.00000e-06 	 -2.00000e-06 
14.73684 	 9.77330e-01 	 9.74560e-01 	 5.50460e-02 	 5.79320e-02 	 7.43200e-03 	 7.63500e-03 	 -2.00000e-06 	 -2.00000e-06 
16.05263 	 1.00412e+00 	 1.00140e+00 	 7.63470e-02 	 7.95380e-02 	 8.37200e-03 	 8.63000e-03 	 -1.00000e-06 	 -1.00000e-06 
17.36842 	 1.03075e+00 	 1.02821e+00 	 1.03890e-01 	 1.07448e-01 	 9.80300e-03 	 1.01130e-02 	 -1.00000e-06 	 -1.00000e-06 
18.68421 	 1.05587e+00 	 1.05362e+00 	 1.37849e-01 	 1.41836e-01 	 1.16650e-02 	 1.20130e-02 	 -1.00000e-06 	 -1.00000e-06 
20.00000 	 1.08225e+00 	 1.08035e+00 	 1.82677e-01 	 1.87178e-01 	 1.39800e-02 	 1.43540e-02 	 -1.00000e-06 	 -1.00000e-06 
10.00 	   -  Re
aoa 	 	 Ue_Vinf_SS 	 Ue_Vinf_PS 	  Dstar_SS 	 	  Dstar_PS 	 	  Theta_SS 	 	  Theta_PS 	 	    Cf_SS 	 	    Cf_PS
(deg) 	 	 	 (-) 	 	 	 (-) 	 	 	 (-) 	 	 	 (-) 	 	 	 (-) 	 	 	 (-) 	 	 	 (-) 	 	 	 (-)
-5.00000 	 8.52090e-01 	 8.29440e-01 	 3.55100e-03 	 4.06400e-03 	 2.30400e-03 	 2.54700e-03 	 1.10600e-03 	 9.35000e-04 
-3.68421 	 8.56820e-01 	 8.34880e-01 	 3.96200e-03 	 4.52000e-03 	 2.53100e-03 	 2.78800e-03 	 1.04800e-03 	 8.86000e-04 
-2.36842 	 8.61430e-01 	 8.40140e-01 	 4.35100e-03 	 4.95200e-03 	 2.73800e-03 	 3.00600e-03 	 9.96000e-04 	 8.41000e-04 
-1.05263 	 8.66410e-01 	 8.45930e-01 	 4.80300e-03 	 5.44700e-03 	 2.97100e-03 	 3.25000e-03 	 9.40000e-04 	 7.94000e-04 
0.26316 	 8.70000e-01 	 8.50130e-01 	 5.32400e-03 	 6.03100e-03 	 3.22600e-03 	 3.52000e-03 	 8.76000e-04 	 7.36000e-04 
1.57895 	 8.72570e-01 	 8.53160e-01 	 5.84400e-03 	 6.62400e-03 	 3.46500e-03 	 3.77400e-03 	 8.11000e-04 	 6.76000e-04 
2.89474 	 8.75130e-01 	 8.56480e-01 	 6.54600e-03 	 7.41500e-03 	 3.77500e-03 	 4.10100e-03 	 7.35000e-04 	 6.07000e-04 
4.21053 	 8.77530e-01 	 8.59630e-01 	 7.22100e-03 	 8.17800e-03 	 4.05000e-03 	 4.38800e-03 	 6.65000e-04 	 5.44000e-04 
5.52632 	 8.78920e-01 	 8.62130e-01 	 8.22200e-03 	 9.30900e-03 	 4.43400e-03 	 4.78500e-03 	 5.74000e-04 	 4.61000e-04 
6.84211 	 8.80130e-01 	 8.64480e-01 	 9.21100e-03 	 1.04250e-02 	 4.77100e-03 	 5.12900e-03 	 4.92000e-04 	 3.88000e-04 
8.15789 	 8.81830e-01 	 8.68120e-01 	 1.08120e-02 	 1.22080e-02 	 5.27200e-03 	 5.62600e-03 	 3.86000e-04 	 2.96000e-04 
9.47368 	 8.83900e-01 	 8.72780e-01 	 1.29960e-02 	 1.46150e-02 	 5.83600e-03 	 6.16500e-03 	 2.71000e-04 	 1.97000e-04 
10.78947 	 8.88730e-01 	 8.81410e-01 	 1.63500e-02 	 1.82550e-02 	 6.47300e-03 	 6.72600e-03 	 1.44000e-04 	 8.70000e-05 
12.10526 	 9.10570e-01 	 9.10010e-01 	 2.39040e-02 	 2.62350e-02 	 6.69500e-03 	 6.71900e-03 	 1.00000e-06 	 0.00000e+00 
13.42105 	 9.42700e-01 	 9.40320e-01 	 3.51190e-02 	 3.77040e-02 	 6.74300e-03 	 6.86900e-03 	 -1.00000e-06 	 -1.00000e-06 
14.73684 	 9.71080e-01 	 9.68370e-01 	 5.04020e-02 	 5.32300e-02 	 7.15100e-03 	 7.33700e-03 	 -1.00000e-06 	 -1.00000e-06 
16.05263 	 9.96230e-01 	 9.93490e-01 	 6.90770e-02 	 7.21830e-02 	 7.90100e-03 	 8.14000e-03 	 -1.00000e-06 	 -1.00000e-06 
17.36842 	 1.02509e+00 	 1.02249e+00 	 9.68080e-02 	 1.00285e-01 	 9.29400e-03 	 9.59200e-03 	 -1.00000e-06 	 -1.00000e-06 
18.68421 	 1.05017e+00 	 1.04783e+00 	 1.29132e-01 	 1.33025e-01 	 1.10730e-02 	 1.14150e-02 	 -1.00000e-06 	 -1.00000e-06 
20.00000 	 1.07407e+00 	 1.07206e+00 	 1.68111e-01 	 1.72472e-01 	 1.31510e-02 	 1.35200e-02 	 0.00000e+00 	 0.00000e+00 
